# Cl- density, from 6-gaussian atomic form factor from cctbx
# total number of electrons:
18
#r(A) e-density (A^-3)
0.025          3589.99
0.050          1130.38
0.075          342.181
0.100          215.186
0.125          167.486
0.150          127.731
0.175          94.5093
0.200          68.1109
0.225          47.9534
0.250          33.0727
0.275          22.4381
0.300          15.0897
0.325          10.1881
0.350          7.03331
0.375          5.06943
0.400           3.8793
0.425          3.16774
0.450          2.73797
0.475          2.46632
0.500           2.2794
0.525          2.13601
0.550          2.01433
0.575          1.90347
0.600          1.79838
0.625           1.6969
0.650          1.59831
0.675          1.50244
0.700          1.40942
0.725          1.31942
0.750          1.23263
0.775          1.14922
0.800          1.06932
0.825         0.993053
0.850         0.920473
0.875         0.851624
0.900         0.786516
0.925         0.725129
0.950         0.667421
0.975         0.613327
1.000         0.562762
1.025         0.515625
1.050         0.471801
1.075          0.43116
1.100         0.393566
1.125         0.358875
1.150         0.326938
1.175           0.2976
1.200         0.270709
1.225         0.246112
1.250         0.223655
1.275          0.20319
1.300         0.184572
1.325          0.16766
1.350         0.152321
1.375         0.138425
1.400         0.125851
1.425         0.114484
1.450         0.104216
1.475        0.0949458
1.500        0.0865796
1.525        0.0790308
1.550        0.0722192
1.575        0.0660715
1.600        0.0605204
1.625        0.0555047
1.650        0.0509688
1.675        0.0468627
1.700        0.0431408
1.725        0.0397626
1.750        0.0366915
1.775        0.0338949
1.800        0.0313438
1.825        0.0290124
1.850        0.0268776
1.875        0.0249191
1.900         0.023119
1.925        0.0214614
1.950        0.0199322
1.975        0.0185192
2.000        0.0172113
2.025        0.0159989
2.050        0.0148736
2.075        0.0138278
2.100        0.0128549
2.125        0.0119489
2.150        0.0111046
2.175        0.0103173
2.200       0.00958277
2.225       0.00889723
2.250       0.00825725
2.275       0.00765975
2.300        0.0071019
2.325       0.00658111
2.350       0.00609503
2.375       0.00564145
2.400       0.00521835
2.425       0.00482384
2.450       0.00445617
2.475       0.00411369
2.500       0.00379485
2.525       0.00349822
2.550       0.00322243
2.575       0.00296617
2.600       0.00272826
2.625       0.00250752
2.650       0.00230289
2.675       0.00211332
2.700       0.00193786
2.725       0.00177558
2.750       0.00162561
2.775       0.00148714
2.800       0.00135939
2.825       0.00124163
2.850       0.00113318
2.875       0.00103337
2.900      0.000941603
2.925      0.000857301
2.950      0.000779922
2.975       0.00070896
3.000      0.000643938
3.025      0.000584411
3.050      0.000529961
3.075      0.000480199
3.100       0.00043476
3.125      0.000393305
3.150      0.000355516
3.175        0.0003211
3.200      0.000289783
3.225       0.00026131
3.250      0.000235445
3.275      0.000211969
3.300      0.000190681
3.325      0.000171393
3.350      0.000153932
3.375      0.000138139
3.400      0.000123866
3.425      0.000110979
3.450      9.93524e-05
3.475      8.88724e-05
3.500      7.94339e-05
3.525      7.09407e-05
3.550      6.33046e-05
3.575       5.6445e-05
3.600      5.02883e-05
3.625       4.4767e-05
3.650      3.98199e-05
3.675      3.53909e-05
3.700      3.14293e-05
3.725      2.78887e-05
3.750       2.4727e-05
3.775      2.19061e-05
3.800      1.93915e-05
3.825      1.71516e-05
3.850      1.51583e-05
3.875      1.33859e-05
3.900      1.18112e-05
3.925      1.04133e-05
3.950      9.17356e-06
3.975      8.07487e-06
4.000      7.10205e-06
