# Na+ density, from 6-gaussian atomic form factor from cctbx
# total number of electrons:
10
#r(A) e-density (A^-3)
0.025          2095.54
0.050          723.721
0.075          273.687
0.100          121.377
0.125          62.1433
0.150          41.6605
0.175          33.6326
0.200          28.8944
0.225          25.1156
0.250          21.7633
0.275          18.7123
0.300          15.9439
0.325          13.4658
0.350          11.2836
0.375          9.39225
0.400          7.77619
0.425          6.41222
0.450          5.27262
0.475          4.32804
0.500          3.54967
0.525          2.91071
0.550          2.38726
0.575          1.95872
0.600          1.60771
0.625          1.31993
0.650          1.08368
0.675         0.889538
0.700         0.729889
0.725          0.59859
0.750         0.490655
0.775         0.402008
0.800         0.329298
0.825         0.269748
0.850         0.221049
0.875         0.181275
0.900         0.148823
0.925         0.122357
0.950         0.100771
0.975        0.0831534
1.000        0.0687549
1.025        0.0569645
1.050        0.0472864
1.075        0.0393197
1.100        0.0327418
1.125        0.0272937
1.150        0.0227677
1.175        0.0189974
1.200        0.0158492
1.225        0.0132153
1.250        0.0110087
1.275       0.00915858
1.300       0.00760696
1.325       0.00630605
1.350       0.00521623
1.375        0.0043044
1.400       0.00354276
1.425       0.00290788
1.450       0.00237989
1.475       0.00194194
1.500       0.00157969
1.525       0.00128096
1.550       0.00103538
1.575      0.000834142
1.600      0.000669797
1.625      0.000536037
1.650      0.000427547
1.675      0.000339862
1.700      0.000269243
1.725      0.000212571
1.750      0.000167255
1.775      0.000131149
1.800      0.000102484
1.825      7.98104e-05
1.850      6.19394e-05
1.875      4.79048e-05
1.900      3.69229e-05
1.925      2.83606e-05
1.950       2.1709e-05
1.975      1.65602e-05
2.000      1.25891e-05
2.025      9.53736e-06
2.050       7.2005e-06
2.075      5.41751e-06
2.100        4.062e-06
2.125      3.03516e-06
2.150      2.26009e-06
2.175      1.67715e-06
2.200      1.24028e-06
2.225      9.14055e-07
2.250      6.71314e-07
2.275      4.91339e-07
2.300      3.58377e-07
2.325      2.60495e-07
2.350      1.88696e-07
2.375      1.36216e-07
2.400      9.79929e-08
2.425      7.02529e-08
2.450      5.01921e-08
2.475      3.57363e-08
2.500      2.53563e-08
2.525      1.79293e-08
2.550      1.26341e-08
2.575      8.87214e-09
2.600      6.20889e-09
2.625      4.33013e-09
2.650      3.00948e-09
2.675      2.08441e-09
2.700      1.43873e-09
2.725      9.89634e-10
2.750      6.78381e-10
2.775       4.6342e-10
2.800      3.15485e-10
2.825      2.14035e-10
2.850      1.44708e-10
2.875      9.74996e-11
2.900      6.54659e-11
2.925      4.38057e-11
2.950      2.92111e-11
2.975      1.94118e-11
3.000      1.28555e-11
3.025      8.48423e-12
3.050      5.58006e-12
3.075      3.65736e-12
3.100       2.3889e-12
3.125        1.555e-12
3.150      1.00871e-12
3.175      6.52085e-13
3.200      4.20092e-13
3.225      2.69703e-13
3.250      1.72556e-13
3.275      1.10022e-13
3.300       6.9908e-14
3.325      4.42668e-14
3.350      2.79339e-14
3.375      1.75666e-14
3.400      1.10089e-14
3.425      6.87553e-15
3.450      4.27926e-15
3.475       2.6542e-15
3.500      1.64059e-15
3.525      1.01058e-15
3.550      6.20357e-16
3.575      3.79504e-16
3.600      2.31362e-16
3.625      1.40563e-16
3.650      8.51043e-17
3.675      5.13493e-17
3.700      3.08759e-17
3.725      1.85015e-17
3.750      1.10484e-17
3.775      6.57491e-18
3.800      3.89928e-18
3.825      2.30452e-18
3.850      1.35731e-18
3.875      7.96676e-19
3.900      4.65999e-19
3.925      2.71638e-19
3.950      1.57797e-19
3.975      9.13503e-20
4.000      5.27014e-20
